%Time (s)	Wheel Position (deg)	Slide position (mm)	Wheel Speed (deg/s)	Slide Speed (mm/s)	Actual sample time (ms)	%2/11/20154:41 PM
0.000	5285.700	144.730	140.667	314.558	19.000
0.020	5288.400	150.395	126.583	257.862	20.000
0.040	5290.780	155.154	112.667	220.542	21.000
0.060	5292.920	159.242	100.167	183.546	20.000
0.080	5294.820	162.582	93.167	159.880	21.000
0.100	5296.680	165.765	91.333	159.034	20.000
0.120	5298.500	168.964	92.167	158.254	19.000
0.140	5300.440	172.132	105.917	163.065	20.000
0.160	5302.780	175.533	127.833	177.044	21.000
0.180	5305.500	179.185	137.333	185.042	19.000
0.200	5308.300	182.899	151.333	187.837	20.000
0.220	5311.640	186.644	182.750	181.271	20.000
0.240	5315.580	190.123	202.750	171.843	19.000
0.260	5319.880	193.478	248.583	158.839	21.000
0.280	5325.560	196.334	301.000	121.584	20.000
0.300	5331.820	198.206	329.833	62.352	19.000
0.320	5338.860	198.768	381.750	0.780	20.000
0.340	5347.120	197.988	441.083	-108.580	21.000
0.360	5356.340	194.399	468.833	-220.477	20.000
0.380	5365.800	189.312	483.667	-302.464	19.000
0.400	5375.780	182.274	521.417	-395.180	21.000
0.420	5386.560	173.583	539.500	-472.747	20.000
0.440	5397.280	163.409	539.000	-543.357	19.000
0.460	5408.320	151.846	585.917	-615.787	22.000
0.480	5420.500	138.785	586.333	-687.307	19.000
0.500	5431.700	124.382	568.083	-752.260	20.000
0.520	5443.600	108.653	631.833	-827.486	21.000
0.540	5456.780	91.332	652.667	-898.811	20.000
0.560	5469.500	72.982	630.750	-921.177	19.000
0.580	5482.260	54.724	662.083	-909.019	20.000
0.600	5496.060	36.873	700.083	-865.131	19.000
0.620	5510.360	20.629	763.000	-742.052	22.000
0.640	5526.280	7.849	768.500	-515.399	19.000
0.660	5540.900	0.624	738.083	-189.008	19.000
0.680	5555.940	0.531	748.000	174.834	20.000
0.700	5570.500	7.443	696.917	514.684	21.000
0.720	5583.560	20.442	602.667	744.848	19.000
0.740	5594.600	36.389	508.250	834.898	20.000
0.760	5604.100	53.336	456.250	854.013	22.000
0.780	5612.840	70.220	397.500	825.405	19.000
0.800	5619.980	86.120	332.750	762.273	20.000
0.820	5626.240	100.570	285.000	679.635	19.000
0.840	5631.440	113.194	245.667	578.011	21.000
0.860	5636.120	123.696	217.000	478.013	20.000
0.880	5640.060	132.403	173.417	393.295	19.000
0.900	5643.120	139.519	141.583	322.425	20.000
0.920	5645.820	145.386	127.417	264.234	21.000
0.940	5648.220	150.176	111.417	219.371	20.000
0.960	5650.280	154.249	95.917	189.658	20.000
0.980	5652.060	157.776	79.417	158.969	19.000
1.000	5653.520	160.662	74.750	136.798	22.000
1.020	5655.080	163.331	74.250	127.826	19.000
1.040	5656.500	165.859	72.750	132.507	19.000
1.060	5658.080	168.667	89.417	142.780	22.000
1.080	5660.060	171.554	100.667	147.851	19.000
1.100	5662.100	174.628	110.417	163.000	20.000
1.120	5664.500	178.061	123.583	175.679	19.000
1.140	5667.100	181.603	147.833	178.540	22.000
1.160	5670.400	185.192	166.750	182.311	19.000
1.180	5673.820	188.828	194.167	173.924	21.000
1.200	5678.240	192.105	235.083	159.750	20.000
1.220	5683.220	195.164	271.833	139.919	19.000
1.240	5689.180	197.535	323.083	90.765	20.000
1.260	5696.100	198.690	363.750	29.518	19.000
1.280	5703.740	198.534	405.250	-62.938	20.000
1.300	5712.400	196.069	470.833	-173.663	21.000
1.320	5722.320	191.668	482.333	-266.509	19.000
1.340	5731.740	185.442	510.750	-355.714	22.000
1.360	5742.700	177.484	529.917	-437.962	19.000
1.380	5752.860	167.965	533.583	-513.708	20.000
1.400	5764.100	156.964	552.333	-584.578	19.000
1.420	5774.880	144.574	547.917	-657.919	20.000
1.440	5786.300	130.655	606.750	-727.293	21.000
1.460	5798.960	115.394	622.000	-819.554	20.000
1.480	5811.120	98.073	631.250	-873.909	21.000
1.500	5824.160	80.612	625.417	-899.916	18.000
1.520	5836.400	62.137	672.000	-926.703	21.000
1.540	5851.100	43.879	734.250	-898.681	20.000
1.560	5865.360	26.621	704.667	-808.305	19.000
1.580	5879.620	12.171	751.833	-621.053	21.000
1.600	5895.440	2.465	804.833	-323.465	20.000
1.620	5911.300	-0.312	759.167	49.739	19.000
1.640	5925.640	4.385	691.667	408.704	20.000
1.660	5939.020	15.589	643.417	704.797	21.000
1.680	5951.200	31.583	559.167	829.826	20.000
1.700	5961.360	48.124	468.750	854.078	19.000
1.720	5970.160	65.507	422.417	855.769	22.000
1.740	5978.200	82.001	359.000	797.252	19.000
1.760	5984.540	97.215	296.167	714.354	19.000
1.780	5990.240	110.448	274.250	610.260	22.000
1.800	5995.400	121.636	224.750	510.327	19.000
1.820	5999.260	130.905	181.917	416.376	20.000
1.840	6002.760	138.395	154.250	339.395	19.000
1.860	6005.460	144.590	129.083	280.423	22.000
1.880	6007.980	149.661	114.917	226.133	19.000
1.900	6010.040	153.734	95.333	188.423	20.000
1.920	6011.820	157.276	80.583	163.261	19.000
1.940	6013.300	160.288	70.667	138.944	20.000
1.960	6014.720	162.909	74.583	127.436	21.000
1.980	6016.280	165.453	75.417	125.810	19.000
2.000	6017.760	168.012	79.500	135.953	20.000
2.020	6019.520	170.914	94.667	149.087	21.000
2.040	6021.560	173.973	110.833	160.985	20.000
2.060	6023.960	177.359	127.583	175.159	20.000
2.080	6026.680	180.932	147.250	180.425	21.000
2.100	6029.860	184.553	168.750	183.546	19.000
2.120	6033.420	188.220	183.917	177.369	20.000
2.140	6037.380	191.606	232.250	165.276	21.000
2.160	6042.700	194.789	275.167	151.102	19.000
2.180	6048.360	197.442	310.167	99.088	20.000
2.200	6055.220	198.643	370.333	33.614	19.000
2.220	6063.100	198.659	413.250	-50.519	20.000
2.240	6071.740	196.459	458.417	-166.186	21.000
2.260	6081.340	192.090	486.667	-263.453	20.000
2.280	6091.120	185.973	495.917	-353.178	19.000
2.300	6101.340	177.999	543.750	-438.742	22.000
2.320	6112.720	168.496	560.917	-510.717	20.000
2.340	6123.640	157.573	551.250	-583.928	19.000
2.360	6134.900	145.136	572.750	-657.463	20.000
2.380	6146.480	131.264	573.167	-733.275	19.000
2.400	6157.980	115.816	604.083	-807.655	21.000
2.420	6170.720	98.994	649.083	-878.590	20.000
2.440	6183.840	80.815	672.833	-928.979	21.000
2.460	6197.580	62.121	691.083	-932.295	20.000
2.480	6211.380	43.786	686.000	-899.916	19.000
2.500	6225.180	26.512	708.750	-813.442	19.000
2.520	6240.000	11.922	790.583	-618.713	22.000
2.540	6256.440	2.434	803.833	-317.354	20.000
2.560	6271.720	-0.343	734.833	54.225	19.000
2.580	6286.020	4.556	720.917	419.952	21.000
2.600	6300.280	15.885	654.583	693.483	20.000
2.620	6311.900	31.474	527.583	833.467	19.000
2.640	6321.660	48.561	458.583	870.788	20.000
2.660	6330.440	65.928	424.000	855.704	21.000
2.680	6338.540	82.531	369.250	803.104	20.000
2.700	6345.180	97.870	308.083	723.717	19.000
2.720	6350.960	111.353	266.000	624.304	20.000
2.740	6355.860	122.806	229.250	519.235	21.000
2.760	6360.140	132.184	193.500	424.178	20.000
2.780	6363.600	139.909	154.417	352.723	19.000
2.800	6366.440	146.369	139.917	291.346	21.000
2.820	6369.200	151.627	124.000	238.617	20.000
2.840	6371.360	156.012	97.667	203.117	19.000
2.860	6373.200	159.789	89.167	169.112	20.000
2.880	6375.000	162.909	92.833	158.319	21.000
2.900	6376.920	166.218	96.250	164.431	20.000
2.920	6378.840	169.448	96.083	158.839	19.000
2.940	6380.820	172.631	105.250	164.886	19.000
2.960	6383.140	176.095	132.500	181.076	22.000
2.980	6386.060	179.825	145.667	187.057	19.000
3.000	6388.960	183.538	157.083	187.122	20.000
3.020	6392.420	187.283	183.167	184.326	19.000
3.040	6396.320	190.857	211.250	173.208	20.000
3.060	6400.980	194.134	260.167	150.322	21.000
3.080	6406.740	196.771	309.417	111.636	20.000
3.100	6413.340	198.519	353.667	65.928	19.000
3.120	6420.940	199.143	410.333	-26.787	21.000
3.140	6429.700	197.286	460.500	-148.371	20.000
3.160	6439.140	193.338	467.333	-241.087	19.000
3.180	6448.420	187.689	481.167	-327.821	20.000
3.200	6458.540	180.230	528.833	-416.246	21.000
3.220	6469.420	171.102	543.750	-493.228	20.000
3.240	6480.220	160.538	546.917	-566.308	19.000
3.260	6491.360	148.522	560.917	-622.224	20.000
3.280	6502.800	135.508	607.500	-708.373	22.000
3.300	6515.440	120.200	607.917	-784.899	19.000
3.320	6527.060	103.972	596.417	-904.402	19.000
3.340	6539.540	84.607	634.083	-910.644	20.000
3.360	6552.460	67.817	674.750	-869.292	21.000
3.380	6566.460	49.513	702.833	-914.350	20.000
3.400	6580.480	31.848	709.583	-844.651	19.000
3.420	6595.020	16.307	757.417	-691.598	21.000
3.440	6610.640	4.884	779.500	-427.169	20.000
3.460	6625.960	-0.218	755.417	-69.309	19.000
3.480	6640.920	2.169	761.833	294.402	22.000
3.500	6655.960	11.220	677.750	606.814	19.000
3.520	6667.800	25.732	552.000	805.900	20.000
3.540	6678.340	42.647	488.833	873.584	19.000
3.560	6687.480	60.170	444.833	868.317	22.000
3.580	6696.080	77.070	388.333	815.913	19.000
3.600	6702.960	92.721	319.583	761.167	20.000
3.620	6708.980	107.233	273.500	653.627	19.000
3.640	6713.980	118.796	240.500	534.774	22.000
3.660	6718.600	128.798	206.167	452.006	19.000
3.680	6722.200	136.897	164.000	365.922	20.000
3.700	6725.260	143.560	142.500	302.139	21.000
3.720	6727.900	149.068	117.750	251.295	19.000
3.740	6730.000	153.656	97.417	206.303	20.000
3.760	6731.860	157.354	88.833	164.626	21.000
3.780	6733.560	160.335	79.417	137.578	20.000
3.800	6735.060	162.987	73.500	132.702	19.000
3.820	6736.540	165.703	73.750	136.213	19.000
3.840	6738.060	168.449	82.167	140.309	20.000
3.860	6739.860	171.336	96.000	147.526	21.000
3.880	6741.900	174.379	108.583	160.335	20.000
3.900	6744.220	177.734	124.083	169.502	19.000
3.920	6746.880	181.151	140.750	177.890	20.000
3.940	6749.920	184.834	171.333	185.562	21.000
3.960	6753.720	188.485	198.083	177.239	20.000
3.980	6757.820	191.871	215.000	161.895	19.000
4.000	6762.540	194.914	277.750	142.000	22.000
4.020	6768.880	197.411	326.667	99.023	19.000
4.040	6775.540	198.721	361.667	32.769	19.000
4.060	6783.420	198.565	412.750	-58.061	20.000
4.080	6792.060	196.287	469.333	-169.047	22.000
4.100	6801.980	191.871	483.417	-265.144	19.000
4.120	6811.380	185.739	496.167	-352.463	20.000
4.140	6821.960	177.812	541.083	-435.296	21.000
4.160	6832.820	168.402	541.917	-503.891	19.000
4.180	6843.640	157.651	548.917	-575.345	20.000
4.200	6854.760	145.386	547.167	-647.516	19.000
4.220	6865.740	131.763	591.750	-716.760	22.000
4.240	6878.300	116.705	608.000	-788.150	19.000
4.260	6889.940	100.227	597.250	-865.261	19.000
4.280	6902.440	82.251	636.667	-917.926	20.000
4.300	6915.520	63.791	696.917	-924.168	22.000
4.320	6930.140	45.518	725.583	-901.476	19.000
4.340	6944.280	28.166	695.083	-811.231	19.000
4.360	6958.380	13.607	762.500	-640.949	22.000
4.380	6974.620	3.199	797.500	-363.776	20.000
4.400	6989.860	-0.390	752.250	8.582	19.000
4.420	7004.720	3.495	726.917	370.343	21.000
4.440	7018.640	13.919	644.667	650.897	20.000
4.460	7030.400	28.790	546.417	813.507	19.000
4.480	7040.580	45.752	462.500	864.936	19.000
4.500	7049.100	62.917	417.167	845.886	22.000
4.520	7057.240	79.348	361.500	794.977	19.000
4.540	7063.560	94.547	304.167	720.011	20.000
4.560	7069.500	107.998	266.583	619.883	19.000
4.580	7074.180	119.311	214.500	515.984	20.000
4.600	7078.220	128.689	192.500	420.602	22.000
4.620	7081.840	136.242	158.250	342.385	19.000
4.640	7084.580	142.499	129.500	282.309	20.000
4.660	7087.080	147.617	111.417	234.455	19.000
4.680	7089.060	151.940	96.083	195.965	21.000
4.700	7090.940	155.497	83.417	163.391	20.000
4.720	7092.400	158.509	70.083	135.043	21.000
4.740	7093.780	160.959	62.917	114.887	18.000
4.760	7094.960	163.222	62.667	116.382	21.000
4.780	7096.320	165.625	67.250	116.317	19.000
4.800	7097.680	167.903	76.917	120.088	22.000
4.820	7099.400	170.493	86.167	136.668	19.000
4.840	7101.140	173.349	97.167	146.746	20.000
4.860	7103.320	176.392	114.500	163.911	19.000
4.880	7105.720	179.871	129.333	174.899	20.000
4.900	7108.560	183.336	157.167	176.199	21.000
4.920	7112.020	186.925	186.667	182.181	20.000
4.940	7116.000	190.529	207.333	170.478	19.000
4.960	7120.440	193.697	252.417	154.808	21.000
4.980	7126.160	196.599	306.917	120.414	20.000
5.000	7132.720	198.331	362.667	54.355	20.000
5.020	7140.580	198.706	399.750	-15.409	19.000
5.040	7148.760	197.504	452.167	-125.290	22.000
5.060	7158.540	193.681	481.167	-235.171	19.000
5.080	7167.880	188.204	484.750	-323.465	19.000
5.100	7178.060	180.745	516.333	-416.441	20.000
5.120	7188.580	171.648	557.333	-490.107	22.000
5.140	7200.220	161.177	572.333	-558.116	19.000
5.160	7211.400	149.287	574.250	-633.992	21.000
5.180	7223.260	135.805	593.333	-712.339	20.000
5.200	7235.080	120.825	597.833	-784.574	19.000
5.220	7247.260	104.440	622.750	-855.379	20.000
5.240	7259.920	86.667	626.833	-921.892	19.000
5.260	7272.520	67.832	667.333	-943.803	21.000
5.280	7286.720	49.216	733.417	-920.592	20.000
5.300	7301.500	31.349	718.750	-851.803	19.000
5.320	7315.740	15.745	771.000	-688.802	22.000
5.340	7332.180	4.494	792.667	-415.271	19.000
5.360	7347.120	-0.312	747.583	-50.454	20.000
5.380	7362.300	2.559	766.750	327.691	21.000
5.400	7377.280	12.374	686.083	638.543	20.000
5.420	7389.440	27.339	548.083	826.706	19.000
5.440	7399.580	44.675	490.500	894.389	20.000
5.460	7409.160	62.558	446.750	876.379	21.000
5.480	7417.320	79.473	372.333	825.015	20.000
5.500	7424.140	95.389	317.333	750.894	19.000
5.520	7430.060	109.324	268.583	645.500	19.000
5.540	7434.920	121.152	223.833	531.653	20.000
5.560	7439.100	130.655	195.500	428.079	21.000
5.580	7442.740	138.442	164.667	353.569	19.000
5.600	7445.700	144.902	134.917	293.947	20.000
5.620	7448.200	150.270	116.417	244.273	20.000
5.640	7450.400	154.733	105.083	203.897	21.000
5.660	7452.400	158.462	91.833	166.706	20.000
5.680	7454.080	161.505	78.500	147.721	19.000
5.700	7455.600	164.439	75.417	138.554	20.000
5.720	7457.160	167.091	83.167	134.653	21.000
5.740	7458.940	169.900	91.833	144.080	19.000
5.760	7460.840	172.881	100.000	156.759	20.000
5.780	7463.000	176.173	120.167	171.128	21.000
5.800	7465.640	179.653	136.750	169.892	20.000
5.820	7468.500	183.008	159.583	178.215	20.000
5.840	7472.020	186.784	179.333	189.398	19.000
5.860	7475.740	190.451	210.167	175.354	21.000
5.880	7480.520	193.744	258.000	157.084	19.000
5.900	7486.060	196.599	300.000	116.122	20.000
5.920	7492.660	198.269	374.417	56.891	22.000
5.940	7500.860	198.784	411.333	-10.923	19.000
5.960	7509.060	197.567	442.583	-130.296	20.000
5.980	7518.540	193.603	469.000	-240.762	19.000
6.000	7527.880	188.095	510.917	-319.044	21.000
6.020	7538.860	180.792	528.417	-412.410	20.000
6.040	7549.000	171.648	543.917	-496.283	21.000
6.060	7560.680	161.006	577.750	-568.389	20.000
6.080	7571.900	148.912	564.583	-642.314	19.000
6.100	7583.400	135.321	581.833	-715.655	20.000
6.120	7595.260	120.325	618.583	-780.868	21.000
6.140	7607.920	104.065	602.583	-852.453	18.000
6.160	7619.600	86.276	638.667	-921.567	21.000
6.180	7633.500	67.520	675.833	-935.026	19.000
6.200	7646.620	49.138	710.833	-911.814	22.000
6.220	7661.880	31.365	737.667	-846.731	19.000
6.240	7676.040	15.870	747.667	-686.722	20.000
6.260	7691.820	4.588	767.750	-417.481	19.000
6.280	7706.700	-0.265	784.833	-54.940	22.000
6.300	7722.900	2.481	749.167	322.100	19.000
6.320	7736.320	12.203	650.917	632.561	20.000
6.340	7748.980	27.027	567.833	821.309	19.000
6.360	7759.120	44.285	498.500	882.101	22.000
6.380	7769.020	62.027	450.583	924.883	19.000
6.400	7777.000	80.503	368.167	822.935	20.000
6.420	7783.880	94.796	313.333	702.781	19.000
6.440	7789.640	108.934	276.250	658.569	21.000
6.460	7794.940	120.809	239.167	538.155	20.000
6.480	7799.180	130.546	194.500	439.653	19.000
6.500	7802.800	138.535	165.000	365.272	20.000
6.520	7805.840	145.230	145.333	295.833	21.000
6.540	7808.620	150.613	126.167	279.578	20.000
6.560	7810.860	156.168	99.583	207.863	19.000
6.580	7812.680	158.946	87.583	134.392	21.000
6.600	7814.420	162.004	84.500	154.613	20.000
6.620	7816.080	165.047	82.167	145.316	19.000
6.640	7817.780	167.872	94.333	147.591	22.000
6.660	7819.840	171.008	101.917	160.530	19.000
6.680	7821.860	174.269	108.417	166.706	20.000
6.700	7824.260	177.702	132.417	179.775	20.000
6.720	7827.120	181.416	145.417	184.196	19.000
6.740	7830.140	185.036	172.083	183.936	22.000
6.760	7834.000	188.735	194.333	178.150	19.000
6.780	7838.000	192.105	234.000	163.586	21.000
6.800	7843.360	195.210	270.167	140.634	18.000
6.820	7848.860	197.582	313.167	92.586	21.000
6.840	7856.040	198.799	389.417	29.648	20.000
6.860	7864.280	198.597	433.750	-61.377	21.000
6.880	7873.260	196.209	458.333	-178.280	20.000
6.900	7882.520	191.590	465.333	-267.355	19.000
6.920	7891.960	185.536	491.250	-355.649	19.000
6.940	7902.200	177.375	521.500	-445.114	20.000
6.960	7912.800	167.840	548.667	-512.018	21.000
6.980	7924.080	156.855	564.667	-589.910	20.000
7.000	7935.320	144.262	563.583	-664.420	19.000
7.020	7946.840	130.328	610.750	-728.788	22.000
7.040	7959.620	115.082	632.083	-798.943	19.000
7.060	7971.900	98.323	601.333	-883.336	20.000
7.080	7984.100	79.972	665.250	-929.694	21.000
7.100	7998.360	61.450	692.833	-923.518	19.000
7.120	8011.640	43.224	683.167	-897.445	20.000
7.140	8025.940	25.981	726.000	-806.745	19.000
7.160	8040.780	11.610	789.417	-613.251	22.000
7.180	8057.240	2.153	803.750	-306.626	20.000
7.200	8072.580	-0.218	759.000	71.910	19.000
7.220	8087.440	4.947	693.583	437.767	19.000
7.240	8100.220	16.697	607.750	707.722	20.000
7.260	8111.900	32.410	556.250	840.034	21.000
7.280	8122.400	49.637	489.417	870.463	20.000
7.300	8131.380	66.865	399.417	850.112	19.000
7.320	8138.600	83.421	355.833	798.813	22.000
7.340	8145.640	98.651	313.417	726.188	19.000
7.360	8151.080	112.211	257.000	606.229	20.000
7.380	8156.000	122.900	217.417	487.701	19.000
7.400	8159.800	131.919	178.333	406.949	21.000
7.420	8163.220	139.269	156.167	337.704	20.000
7.440	8166.040	145.495	129.417	278.343	19.000
7.460	8168.440	150.457	110.500	225.548	20.000
7.480	8170.500	154.624	98.583	192.064	21.000
7.500	8172.380	158.166	84.667	159.424	20.000
7.520	8173.900	161.068	71.333	137.513	19.000
7.540	8175.320	163.752	74.417	129.516	21.000
7.560	8176.900	166.311	80.083	130.426	20.000
7.580	8178.520	169.026	83.000	141.479	19.000
7.600	8180.280	171.960	98.167	148.566	22.000
7.620	8182.440	174.987	110.667	159.750	19.000
7.640	8184.700	178.342	120.083	169.957	19.000
7.660	8187.320	181.744	146.500	172.298	22.000
7.680	8190.500	185.224	157.000	174.834	18.000
7.700	8193.680	188.688	182.667	168.332	21.000
7.720	8197.900	191.934	226.333	160.530	20.000
7.740	8202.680	195.023	252.167	139.594	19.000
7.760	8208.180	197.379	320.083	95.902	22.000
7.780	8215.400	198.753	369.417	38.686	19.000
7.800	8222.840	198.753	393.250	-47.658	20.000
7.820	8231.300	196.724	458.750	-155.133	21.000
7.840	8241.000	192.589	486.917	-253.506	19.000
7.860	8250.580	186.675	477.417	-335.103	20.000
7.880	8260.220	179.200	493.083	-417.937	19.000
7.900	8270.480	170.041	545.500	-484.515	22.000
7.920	8281.860	159.820	562.833	-551.809	19.000
7.940	8292.780	147.914	537.083	-631.781	19.000
7.960	8303.540	134.619	550.333	-696.279	20.000
7.980	8315.020	120.060	610.333	-757.526	22.000
8.000	8327.700	104.097	614.750	-874.689	19.000
8.020	8339.580	85.543	610.250	-898.421	19.000
8.040	8352.480	68.409	686.417	-880.736	22.000
8.060	8366.800	50.184	709.833	-908.173	19.000
8.080	8380.720	32.597	704.750	-843.545	20.000
8.100	8395.140	17.009	732.167	-694.459	20.000
8.120	8410.060	5.462	772.167	-445.894	21.000
8.140	8425.800	-0.234	774.500	-97.267	19.000
8.160	8440.680	1.670	712.167	264.884	19.000
8.180	8454.220	10.018	644.250	572.095	20.000
8.200	8466.500	23.906	591.833	778.267	22.000
8.220	8477.740	40.353	509.083	853.883	19.000
8.240	8486.800	57.564	411.583	859.215	19.000
8.260	8494.440	74.355	360.000	807.915	20.000
8.280	8501.320	89.709	327.083	733.860	21.000
8.300	8507.500	103.613	288.750	647.190	20.000
8.320	8512.780	115.503	231.333	543.552	19.000
8.340	8516.820	125.381	186.417	444.724	20.000
8.360	8520.360	133.402	164.500	363.972	21.000
8.380	8523.400	140.065	138.333	304.415	20.000
8.400	8525.940	145.620	121.500	248.369	21.000
8.420	8528.260	150.067	103.917	202.792	20.000
8.440	8530.080	153.812	81.250	170.348	19.000
8.460	8531.580	156.933	72.750	145.966	20.000
8.480	8533.000	159.664	63.583	120.999	19.000
8.500	8534.160	161.848	60.333	108.125	21.000
8.520	8535.460	164.095	65.167	113.847	20.000
8.540	8536.780	166.436	70.583	123.404	19.000
8.560	8538.320	169.042	82.333	133.872	20.000
8.580	8540.100	171.804	98.500	146.031	21.000
8.600	8542.260	174.909	113.750	164.366	20.000
8.620	8544.660	178.327	132.000	172.428	21.000
8.640	8547.500	181.775	139.917	175.614	18.000
